PE UV                   SPECTRUM    ASCII       PEDS        1.60        
  -1
PH4B.TXT
15/03/18
15:06:51.00
15/03/18
15:18:30.00


250.000000
1









4444

SCAN
1
1


0.0
240.0
2.00
MANUAL



UV/VIS




































#HDR
-1
-1
#GR
NM
A
0.00000011920928955078
0.0
700.000000
1.000000
451
8
0.218560
0.008250
#DATA
700.000000	0.008580 
699.000000	0.008390 
698.000000	0.008250 
697.000000	0.008270 
696.000000	0.008420 
695.000000	0.008489 
694.000000	0.008420 
693.000000	0.008449 
692.000000	0.008489 
691.000000	0.008420 
690.000000	0.008510 
689.000000	0.008440 
688.000000	0.008510 
687.000000	0.008380 
686.000000	0.008730 
685.000000	0.008800 
684.000000	0.008800 
683.000000	0.008569 
682.000000	0.008680 
681.000000	0.008840 
680.000000	0.008810 
679.000000	0.008730 
678.000000	0.008840 
677.000000	0.008999 
676.000000	0.008990 
675.000000	0.009039 
674.000000	0.009010 
673.000000	0.009100 
672.000000	0.008959 
671.000000	0.008959 
670.000000	0.009020 
669.000000	0.008880 
668.000000	0.009039 
667.000000	0.009129 
666.000000	0.009310 
665.000000	0.009150 
664.000000	0.009129 
663.000000	0.009310 
662.000000	0.009030 
661.000000	0.009030 
660.000000	0.009030 
659.000000	0.009039 
658.000000	0.009169 
657.000000	0.009230 
656.000000	0.009230 
655.000000	0.009060 
654.000000	0.009220 
653.000000	0.009379 
652.000000	0.009460 
651.000000	0.009350 
650.000000	0.009480 
649.000000	0.009460 
648.000000	0.009100 
647.000000	0.009290 
646.000000	0.009270 
645.000000	0.009050 
644.000000	0.009150 
643.000000	0.009310 
642.000000	0.009230 
641.000000	0.009370 
640.000000	0.009360 
639.000000	0.009410 
638.000000	0.009330 
637.000000	0.009339 
636.000000	0.009570 
635.000000	0.009450 
634.000000	0.009220 
633.000000	0.009639 
632.000000	0.009480 
631.000000	0.009420 
630.000000	0.009670 
629.000000	0.009560 
628.000000	0.009520 
627.000000	0.009700 
626.000000	0.009870 
625.000000	0.009809 
624.000000	0.009750 
623.000000	0.009740 
622.000000	0.009820 
621.000000	0.009620 
620.000000	0.009620 
619.000000	0.009910 
618.000000	0.009690 
617.000000	0.009599 
616.000000	0.009800 
615.000000	0.010120 
614.000000	0.009660 
613.000000	0.010000 
612.000000	0.009870 
611.000000	0.009860 
610.000000	0.009870 
609.000000	0.009910 
608.000000	0.009870 
607.000000	0.009889 
606.000000	0.010040 
605.000000	0.010090 
604.000000	0.009930 
603.000000	0.010040 
602.000000	0.010180 
601.000000	0.010300 
600.000000	0.010100 
599.000000	0.010300 
598.000000	0.010450 
597.000000	0.010170 
596.000000	0.010270 
595.000000	0.010370 
594.000000	0.010260 
593.000000	0.010300 
592.000000	0.010630 
591.000000	0.010390 
590.000000	0.010300 
589.000000	0.010510 
588.000000	0.010720 
587.000000	0.010590 
586.000000	0.010560 
585.000000	0.010900 
584.000000	0.010710 
583.000000	0.010740 
582.000000	0.010940 
581.000000	0.011230 
580.000000	0.011160 
579.000000	0.011310 
578.000000	0.011420 
577.000000	0.011430 
576.000000	0.011710 
575.000000	0.011970 
574.000000	0.011930 
573.000000	0.012020 
572.000000	0.012080 
571.000000	0.012350 
570.000000	0.012180 
569.000000	0.012480 
568.000000	0.012900 
567.000000	0.013090 
566.000000	0.013210 
565.000000	0.013640 
564.000000	0.013960 
563.000000	0.013900 
562.000000	0.014170 
561.000000	0.014460 
560.000000	0.015020 
559.000000	0.015480 
558.000000	0.015750 
557.000000	0.015920 
556.000000	0.016500 
555.000000	0.016830 
554.000000	0.017200 
553.000000	0.018090 
552.000000	0.018660 
551.000000	0.019310 
550.000000	0.019990 
549.000000	0.020800 
548.000000	0.021500 
547.000000	0.022270 
546.000000	0.023160 
545.000000	0.024200 
544.000000	0.024900 
543.000000	0.025840 
542.000000	0.026670 
541.000000	0.027720 
540.000000	0.028580 
539.000000	0.029910 
538.000000	0.030810 
537.000000	0.032090 
536.000000	0.033450 
535.000000	0.035010 
534.000000	0.036000 
533.000000	0.037740 
532.000000	0.039220 
531.000000	0.040780 
530.000000	0.042270 
529.000000	0.044080 
528.000000	0.045820 
527.000000	0.047720 
526.000000	0.049830 
525.000000	0.052080 
524.000000	0.054020 
523.000000	0.055940 
522.000000	0.058470 
521.000000	0.060760 
520.000000	0.062860 
519.000000	0.065320 
518.000000	0.067890 
517.000000	0.070200 
516.000000	0.072730 
515.000000	0.075210 
514.000000	0.077950 
513.000000	0.080720 
512.000000	0.083620 
511.000000	0.086310 
510.000000	0.089050 
509.000000	0.092240 
508.000000	0.095490 
507.000000	0.098169 
506.000000	0.100920 
505.000000	0.103890 
504.000000	0.107170 
503.000000	0.110190 
502.000000	0.113470 
501.000000	0.116910 
500.000000	0.119860 
499.000000	0.123040 
498.000000	0.126460 
497.000000	0.129560 
496.000000	0.132700 
495.000000	0.136170 
494.000000	0.139330 
493.000000	0.142140 
492.000000	0.145030 
491.000000	0.147750 
490.000000	0.150810 
489.000000	0.153870 
488.000000	0.156980 
487.000000	0.159760 
486.000000	0.162680 
485.000000	0.165890 
484.000000	0.168500 
483.000000	0.170850 
482.000000	0.173450 
481.000000	0.175940 
480.000000	0.178050 
479.000000	0.180810 
478.000000	0.183380 
477.000000	0.185770 
476.000000	0.188310 
475.000000	0.190670 
474.000000	0.192560 
473.000000	0.194520 
472.000000	0.196690 
471.000000	0.198940 
470.000000	0.200330 
469.000000	0.201850 
468.000000	0.203120 
467.000000	0.204730 
466.000000	0.205680 
465.000000	0.207300 
464.000000	0.208450 
463.000000	0.209520 
462.000000	0.210850 
461.000000	0.212320 
460.000000	0.212890 
459.000000	0.213410 
458.000000	0.214100 
457.000000	0.214780 
456.000000	0.215250 
455.000000	0.215630 
454.000000	0.216110 
453.000000	0.216450 
452.000000	0.216850 
451.000000	0.217290 
450.000000	0.217960 
449.000000	0.217640 
448.000000	0.218260 
447.000000	0.218560 
446.000000	0.218330 
445.000000	0.217810 
444.000000	0.217300 
443.000000	0.216810 
442.000000	0.216160 
441.000000	0.215800 
440.000000	0.214890 
439.000000	0.214400 
438.000000	0.214080 
437.000000	0.213510 
436.000000	0.212670 
435.000000	0.211430 
434.000000	0.210490 
433.000000	0.209210 
432.000000	0.207870 
431.000000	0.206530 
430.000000	0.205460 
429.000000	0.204570 
428.000000	0.203380 
427.000000	0.202450 
426.000000	0.200790 
425.000000	0.199950 
424.000000	0.198900 
423.000000	0.197630 
422.000000	0.196140 
421.000000	0.194430 
420.000000	0.191260 
419.000000	0.189870 
418.000000	0.188290 
417.000000	0.186570 
416.000000	0.184570 
415.000000	0.182770 
414.000000	0.180910 
413.000000	0.178890 
412.000000	0.177390 
411.000000	0.174830 
410.000000	0.172990 
409.000000	0.171000 
408.000000	0.169070 
407.000000	0.166740 
406.000000	0.164740 
405.000000	0.162480 
404.000000	0.159920 
403.000000	0.157730 
402.000000	0.155430 
401.000000	0.153080 
400.000000	0.151180 
399.000000	0.148880 
398.000000	0.146990 
397.000000	0.144450 
396.000000	0.142480 
395.000000	0.140260 
394.000000	0.137850 
393.000000	0.135670 
392.000000	0.133440 
391.000000	0.130970 
390.000000	0.128370 
389.000000	0.126070 
388.000000	0.123430 
387.000000	0.120920 
386.000000	0.118970 
385.000000	0.117390 
384.000000	0.114600 
383.000000	0.112370 
382.000000	0.109770 
381.000000	0.108620 
380.000000	0.107330 
379.000000	0.105280 
378.000000	0.102330 
377.000000	0.100850 
376.000000	0.098820 
375.000000	0.096690 
374.000000	0.094370 
373.000000	0.092490 
372.000000	0.091390 
371.000000	0.089710 
370.000000	0.088740 
369.000000	0.087790 
368.000000	0.086650 
367.000000	0.086120 
366.000000	0.086220 
365.000000	0.085730 
364.000000	0.085610 
363.000000	0.086170 
362.000000	0.086440 
361.000000	0.086610 
360.000000	0.087420 
359.000000	0.088190 
358.000000	0.089390 
357.000000	0.091259 
356.000000	0.093750 
355.000000	0.095170 
354.000000	0.097239 
353.000000	0.099520 
352.000000	0.101960 
351.000000	0.103620 
350.000000	0.105780 
349.000000	0.107640 
348.000000	0.109910 
347.000000	0.112070 
346.000000	0.114420 
345.000000	0.116630 
344.000000	0.118350 
343.000000	0.120750 
342.000000	0.123250 
341.000000	0.125090 
340.000000	0.127310 
339.000000	0.129780 
338.000000	0.130830 
337.000000	0.131560 
336.000000	0.132970 
335.000000	0.133680 
334.000000	0.135470 
333.000000	0.136000 
332.000000	0.136990 
331.000000	0.137040 
330.000000	0.137620 
329.000000	0.138310 
328.000000	0.138120 
327.000000	0.136570 
326.000000	0.138140 
325.000000	0.137650 
324.000000	0.135930 
323.000000	0.135350 
322.000000	0.134410 
321.000000	0.132990 
320.000000	0.131590 
319.000000	0.130480 
318.000000	0.129200 
317.000000	0.128450 
316.000000	0.127880 
315.000000	0.126650 
314.000000	0.124270 
313.000000	0.123170 
312.000000	0.121830 
311.000000	0.120570 
310.000000	0.118640 
309.000000	0.117520 
308.000000	0.116300 
307.000000	0.115460 
306.000000	0.114240 
305.000000	0.113670 
304.000000	0.112190 
303.000000	0.111640 
302.000000	0.111320 
301.000000	0.109980 
300.000000	0.109320 
299.000000	0.108550 
298.000000	0.108290 
297.000000	0.107010 
296.000000	0.106890 
295.000000	0.106650 
294.000000	0.106530 
293.000000	0.106360 
292.000000	0.106880 
291.000000	0.106360 
290.000000	0.105910 
289.000000	0.105740 
288.000000	0.105870 
287.000000	0.105800 
286.000000	0.105540 
285.000000	0.105930 
284.000000	0.106550 
283.000000	0.106660 
282.000000	0.107010 
281.000000	0.107350 
280.000000	0.107410 
279.000000	0.107910 
278.000000	0.108290 
277.000000	0.108760 
276.000000	0.109490 
275.000000	0.110460 
274.000000	0.110980 
273.000000	0.111860 
272.000000	0.113350 
271.000000	0.114490 
270.000000	0.116060 
269.000000	0.117130 
268.000000	0.117920 
267.000000	0.117840 
266.000000	0.117860 
265.000000	0.117840 
264.000000	0.117550 
263.000000	0.116670 
262.000000	0.115900 
261.000000	0.114520 
260.000000	0.113650 
259.000000	0.112070 
258.000000	0.110550 
257.000000	0.108300 
256.000000	0.106320 
255.000000	0.104210 
254.000000	0.102260 
253.000000	0.100060 
252.000000	0.098419 
251.000000	0.096740 
250.000000	0.094820 

