PE UV                   SPECTRUM    ASCII       PEDS        1.60        
  -1
PH8A.TXT
15/03/18
14:12:33.00
15/03/18
14:32:03.00


250.000000
1









4444

SCAN
1
1


0.0
240.0
2.00
MANUAL



UV/VIS




































#HDR
-1
-1
#GR
NM
A
0.00000011920928955078
0.0
700.000000
1.000000
451
8
0.277250
0.003160
#DATA
700.000000	0.005200 
699.000000	0.005200 
698.000000	0.005020 
697.000000	0.005130 
696.000000	0.005160 
695.000000	0.005120 
694.000000	0.005000 
693.000000	0.005110 
692.000000	0.005010 
691.000000	0.004920 
690.000000	0.004890 
689.000000	0.004970 
688.000000	0.004990 
687.000000	0.004770 
686.000000	0.004860 
685.000000	0.004710 
684.000000	0.005040 
683.000000	0.005050 
682.000000	0.004810 
681.000000	0.004620 
680.000000	0.004670 
679.000000	0.004520 
678.000000	0.004590 
677.000000	0.004820 
676.000000	0.004640 
675.000000	0.004490 
674.000000	0.004600 
673.000000	0.004590 
672.000000	0.004370 
671.000000	0.004290 
670.000000	0.004340 
669.000000	0.004450 
668.000000	0.004260 
667.000000	0.004340 
666.000000	0.004360 
665.000000	0.004340 
664.000000	0.004360 
663.000000	0.004310 
662.000000	0.004440 
661.000000	0.004470 
660.000000	0.004460 
659.000000	0.004350 
658.000000	0.004200 
657.000000	0.004080 
656.000000	0.004010 
655.000000	0.003990 
654.000000	0.003970 
653.000000	0.003820 
652.000000	0.003880 
651.000000	0.003790 
650.000000	0.003770 
649.000000	0.004020 
648.000000	0.003960 
647.000000	0.003660 
646.000000	0.003710 
645.000000	0.003690 
644.000000	0.003470 
643.000000	0.003480 
642.000000	0.003490 
641.000000	0.003410 
640.000000	0.003620 
639.000000	0.003540 
638.000000	0.003530 
637.000000	0.003680 
636.000000	0.003590 
635.000000	0.003680 
634.000000	0.003650 
633.000000	0.003550 
632.000000	0.003640 
631.000000	0.003580 
630.000000	0.003420 
629.000000	0.003310 
628.000000	0.003690 
627.000000	0.003500 
626.000000	0.003470 
625.000000	0.003380 
624.000000	0.003560 
623.000000	0.003370 
622.000000	0.003320 
621.000000	0.003430 
620.000000	0.003250 
619.000000	0.003180 
618.000000	0.003380 
617.000000	0.003310 
616.000000	0.003180 
615.000000	0.003330 
614.000000	0.003250 
613.000000	0.003370 
612.000000	0.003500 
611.000000	0.003330 
610.000000	0.003540 
609.000000	0.003410 
608.000000	0.003460 
607.000000	0.003340 
606.000000	0.003160 
605.000000	0.003220 
604.000000	0.003320 
603.000000	0.003250 
602.000000	0.003440 
601.000000	0.003600 
600.000000	0.003430 
599.000000	0.003440 
598.000000	0.003470 
597.000000	0.003380 
596.000000	0.003440 
595.000000	0.003550 
594.000000	0.003550 
593.000000	0.003450 
592.000000	0.003560 
591.000000	0.003510 
590.000000	0.003780 
589.000000	0.003620 
588.000000	0.003900 
587.000000	0.003850 
586.000000	0.003990 
585.000000	0.004120 
584.000000	0.004110 
583.000000	0.004030 
582.000000	0.004250 
581.000000	0.004230 
580.000000	0.004380 
579.000000	0.004380 
578.000000	0.004420 
577.000000	0.004670 
576.000000	0.004660 
575.000000	0.004930 
574.000000	0.005130 
573.000000	0.005230 
572.000000	0.005260 
571.000000	0.005450 
570.000000	0.005790 
569.000000	0.005880 
568.000000	0.006120 
567.000000	0.006540 
566.000000	0.006670 
565.000000	0.007050 
564.000000	0.007450 
563.000000	0.007710 
562.000000	0.008070 
561.000000	0.008690 
560.000000	0.009010 
559.000000	0.009679 
558.000000	0.010140 
557.000000	0.010710 
556.000000	0.011220 
555.000000	0.011800 
554.000000	0.012150 
553.000000	0.012950 
552.000000	0.013830 
551.000000	0.014430 
550.000000	0.015220 
549.000000	0.015910 
548.000000	0.016840 
547.000000	0.017840 
546.000000	0.019150 
545.000000	0.020230 
544.000000	0.021200 
543.000000	0.022400 
542.000000	0.023630 
541.000000	0.024960 
540.000000	0.026320 
539.000000	0.027700 
538.000000	0.029450 
537.000000	0.031190 
536.000000	0.032770 
535.000000	0.034870 
534.000000	0.036570 
533.000000	0.038630 
532.000000	0.040680 
531.000000	0.042800 
530.000000	0.045140 
529.000000	0.047600 
528.000000	0.049840 
527.000000	0.052130 
526.000000	0.054390 
525.000000	0.056930 
524.000000	0.060070 
523.000000	0.062560 
522.000000	0.065670 
521.000000	0.068700 
520.000000	0.071790 
519.000000	0.075020 
518.000000	0.077990 
517.000000	0.081270 
516.000000	0.084640 
515.000000	0.088270 
514.000000	0.091590 
513.000000	0.095230 
512.000000	0.098960 
511.000000	0.102740 
510.000000	0.106520 
509.000000	0.110570 
508.000000	0.114680 
507.000000	0.118890 
506.000000	0.122910 
505.000000	0.127250 
504.000000	0.131300 
503.000000	0.135100 
502.000000	0.139110 
501.000000	0.143460 
500.000000	0.147170 
499.000000	0.151750 
498.000000	0.155860 
497.000000	0.160110 
496.000000	0.164240 
495.000000	0.168700 
494.000000	0.172580 
493.000000	0.176810 
492.000000	0.180800 
491.000000	0.184650 
490.000000	0.188830 
489.000000	0.192510 
488.000000	0.196410 
487.000000	0.200590 
486.000000	0.204530 
485.000000	0.208230 
484.000000	0.212060 
483.000000	0.216110 
482.000000	0.219980 
481.000000	0.223400 
480.000000	0.227070 
479.000000	0.230030 
478.000000	0.233010 
477.000000	0.236170 
476.000000	0.238370 
475.000000	0.241270 
474.000000	0.244190 
473.000000	0.246990 
472.000000	0.249170 
471.000000	0.252210 
470.000000	0.254350 
469.000000	0.256530 
468.000000	0.258100 
467.000000	0.260500 
466.000000	0.261980 
465.000000	0.263470 
464.000000	0.265080 
463.000000	0.266800 
462.000000	0.268180 
461.000000	0.269320 
460.000000	0.270990 
459.000000	0.272240 
458.000000	0.273410 
457.000000	0.274300 
456.000000	0.275280 
455.000000	0.275710 
454.000000	0.276520 
453.000000	0.276460 
452.000000	0.276540 
451.000000	0.276690 
450.000000	0.277190 
449.000000	0.277210 
448.000000	0.277180 
447.000000	0.277250 
446.000000	0.276930 
445.000000	0.276750 
444.000000	0.275770 
443.000000	0.275200 
442.000000	0.274550 
441.000000	0.273670 
440.000000	0.273100 
439.000000	0.272380 
438.000000	0.271140 
437.000000	0.270390 
436.000000	0.269480 
435.000000	0.268570 
434.000000	0.267460 
433.000000	0.266090 
432.000000	0.265270 
431.000000	0.263970 
430.000000	0.261980 
429.000000	0.259640 
428.000000	0.257550 
427.000000	0.255580 
426.000000	0.253850 
425.000000	0.252090 
424.000000	0.250440 
423.000000	0.248500 
422.000000	0.246500 
421.000000	0.244160 
420.000000	0.240740 
419.000000	0.238640 
418.000000	0.236170 
417.000000	0.233750 
416.000000	0.231550 
415.000000	0.228910 
414.000000	0.226330 
413.000000	0.223740 
412.000000	0.221000 
411.000000	0.218450 
410.000000	0.215530 
409.000000	0.212970 
408.000000	0.210110 
407.000000	0.207220 
406.000000	0.204420 
405.000000	0.201750 
404.000000	0.198450 
403.000000	0.195670 
402.000000	0.193010 
401.000000	0.189760 
400.000000	0.186120 
399.000000	0.183030 
398.000000	0.179880 
397.000000	0.176800 
396.000000	0.173560 
395.000000	0.170890 
394.000000	0.167560 
393.000000	0.164470 
392.000000	0.161430 
391.000000	0.158220 
390.000000	0.154710 
389.000000	0.151540 
388.000000	0.148390 
387.000000	0.144860 
386.000000	0.141940 
385.000000	0.138780 
384.000000	0.135780 
383.000000	0.131680 
382.000000	0.129420 
381.000000	0.126220 
380.000000	0.123340 
379.000000	0.120640 
378.000000	0.117620 
377.000000	0.114850 
376.000000	0.112410 
375.000000	0.109050 
374.000000	0.106280 
373.000000	0.103860 
372.000000	0.100530 
371.000000	0.097100 
370.000000	0.094010 
369.000000	0.091300 
368.000000	0.088490 
367.000000	0.085340 
366.000000	0.083120 
365.000000	0.080510 
364.000000	0.077840 
363.000000	0.075190 
362.000000	0.072770 
361.000000	0.069850 
360.000000	0.067410 
359.000000	0.065150 
358.000000	0.062280 
357.000000	0.060260 
356.000000	0.058790 
355.000000	0.056280 
354.000000	0.054600 
353.000000	0.052600 
352.000000	0.050910 
351.000000	0.049290 
350.000000	0.047600 
349.000000	0.046840 
348.000000	0.044990 
347.000000	0.042660 
346.000000	0.041260 
345.000000	0.040520 
344.000000	0.038640 
343.000000	0.038070 
342.000000	0.037430 
341.000000	0.036790 
340.000000	0.036380 
339.000000	0.036150 
338.000000	0.035770 
337.000000	0.035190 
336.000000	0.034710 
335.000000	0.034700 
334.000000	0.033730 
333.000000	0.034020 
332.000000	0.034490 
331.000000	0.034740 
330.000000	0.035100 
329.000000	0.034730 
328.000000	0.035220 
327.000000	0.035640 
326.000000	0.035230 
325.000000	0.035490 
324.000000	0.037040 
323.000000	0.036360 
322.000000	0.036800 
321.000000	0.037130 
320.000000	0.037780 
319.000000	0.038300 
318.000000	0.039670 
317.000000	0.040520 
316.000000	0.041400 
315.000000	0.042570 
314.000000	0.044030 
313.000000	0.045440 
312.000000	0.046840 
311.000000	0.048030 
310.000000	0.049530 
309.000000	0.051180 
308.000000	0.051990 
307.000000	0.052560 
306.000000	0.053770 
305.000000	0.055340 
304.000000	0.056630 
303.000000	0.058060 
302.000000	0.060030 
301.000000	0.061240 
300.000000	0.062870 
299.000000	0.064159 
298.000000	0.066070 
297.000000	0.066800 
296.000000	0.068660 
295.000000	0.070250 
294.000000	0.071720 
293.000000	0.073109 
292.000000	0.075410 
291.000000	0.076650 
290.000000	0.078150 
289.000000	0.079600 
288.000000	0.080870 
287.000000	0.082350 
286.000000	0.083580 
285.000000	0.084930 
284.000000	0.085190 
283.000000	0.085860 
282.000000	0.086700 
281.000000	0.088080 
280.000000	0.088480 
279.000000	0.090020 
278.000000	0.091020 
277.000000	0.092290 
276.000000	0.093659 
275.000000	0.095320 
274.000000	0.097050 
273.000000	0.099349 
272.000000	0.101890 
271.000000	0.104730 
270.000000	0.106750 
269.000000	0.108760 
268.000000	0.110320 
267.000000	0.111240 
266.000000	0.112140 
265.000000	0.112130 
264.000000	0.112040 
263.000000	0.111780 
262.000000	0.111490 
261.000000	0.110630 
260.000000	0.108340 
259.000000	0.106550 
258.000000	0.104350 
257.000000	0.101620 
256.000000	0.098700 
255.000000	0.096350 
254.000000	0.093440 
253.000000	0.090860 
252.000000	0.088330 
251.000000	0.085760 
250.000000	0.083430 

