PE FL                   SPECTRUM    ASCII       PEDS        1.60        
  -1
SW4_004.TXT
15/03/11
14:25:40.00
15/03/11
14:28:39.00
GAB, RAF
FLUOROSCEIN SODIUM 3*10^-7 VERSUCH 6.1 NR. 2 390NM
900.500000
1









LS50-B
390.00
2.50
2.50
SCAN
1
20
100
100
0
200
0
1
0
1
3
ON
900 380 
1 0 0
#HDR
-1
-1
#GR
NM

0.00002384185791015625
0.0
370.000000
0.500000
1062
8
299.835000
-0.181000
#DATA
370.000000	0.000000   
370.500000	0.149000   
371.000000	0.154000   
371.500000	0.030000   
372.000000	0.007000   
372.500000	0.008000   
373.000000	-0.032000  
373.500000	0.062000   
374.000000	0.191000   
374.500000	0.041000   
375.000000	-0.014000  
375.500000	0.069000   
376.000000	0.017000   
376.500000	0.191000   
377.000000	0.243000   
377.500000	0.305000   
378.000000	0.017000   
378.500000	0.151000   
379.000000	0.261000   
379.500000	0.146000   
380.000000	0.269000   
380.500000	0.363000   
381.000000	0.251000   
381.500000	0.181000   
382.000000	0.570000   
382.500000	0.517000   
383.000000	0.725000   
383.500000	1.231000   
384.000000	3.661000   
384.500000	7.624000   
385.000000	14.858000  
385.500000	30.028000  
386.000000	52.257000  
386.500000	85.601000  
387.000000	131.294000 
387.500000	177.616000 
388.000000	235.025000 
388.500000	275.862000 
389.000000	296.967000 
389.500000	299.835000 
390.000000	279.101000 
390.500000	234.155000 
391.000000	167.488000 
391.500000	123.370000 
392.000000	80.904000  
392.500000	40.227000  
393.000000	22.286000  
393.500000	10.574000  
394.000000	4.894000   
394.500000	2.033000   
395.000000	0.738000   
395.500000	0.603000   
396.000000	0.450000   
396.500000	0.502000   
397.000000	0.707000   
397.500000	0.225000   
398.000000	0.180000   
398.500000	0.503000   
399.000000	0.384000   
399.500000	0.423000   
400.000000	0.209000   
400.500000	0.336000   
401.000000	0.246000   
401.500000	0.299000   
402.000000	0.295000   
402.500000	0.190000   
403.000000	0.349000   
403.500000	0.188000   
404.000000	0.431000   
404.500000	0.137000   
405.000000	0.137000   
405.500000	0.135000   
406.000000	0.371000   
406.500000	0.245000   
407.000000	0.221000   
407.500000	0.292000   
408.000000	0.293000   
408.500000	0.096000   
409.000000	0.068000   
409.500000	0.145000   
410.000000	0.195000   
410.500000	0.313000   
411.000000	0.172000   
411.500000	0.154000   
412.000000	0.182000   
412.500000	0.327000   
413.000000	0.179000   
413.500000	0.058000   
414.000000	0.144000   
414.500000	0.398000   
415.000000	0.257000   
415.500000	0.337000   
416.000000	0.128000   
416.500000	0.103000   
417.000000	0.037000   
417.500000	0.225000   
418.000000	0.363000   
418.500000	0.069000   
419.000000	0.138000   
419.500000	0.035000   
420.000000	0.128000   
420.500000	0.049000   
421.000000	0.224000   
421.500000	0.188000   
422.000000	0.011000   
422.500000	0.111000   
423.000000	0.094000   
423.500000	0.138000   
424.000000	0.224000   
424.500000	0.104000   
425.000000	0.103000   
425.500000	0.245000   
426.000000	0.068000   
426.500000	0.035000   
427.000000	0.138000   
427.500000	0.144000   
428.000000	0.219000   
428.500000	0.085000   
429.000000	0.074000   
429.500000	0.027000   
430.000000	0.183000   
430.500000	0.226000   
431.000000	0.402000   
431.500000	0.017000   
432.000000	0.000000   
432.500000	0.085000   
433.000000	-0.044000  
433.500000	0.040000   
434.000000	0.031000   
434.500000	0.008999   
435.000000	0.078000   
435.500000	0.353000   
436.000000	0.245000   
436.500000	0.235000   
437.000000	0.085999   
437.500000	0.173000   
438.000000	0.095000   
438.500000	0.393000   
439.000000	0.171000   
439.500000	0.138000   
440.000000	0.423000   
440.500000	0.200000   
441.000000	0.246000   
441.500000	0.430000   
442.000000	0.275000   
442.500000	0.199000   
443.000000	0.599000   
443.500000	0.708000   
444.000000	0.365000   
444.500000	0.370000   
445.000000	0.535000   
445.500000	0.312000   
446.000000	0.502000   
446.500000	0.867000   
447.000000	0.474000   
447.500000	0.867000   
448.000000	0.712000   
448.500000	0.848000   
449.000000	0.826000   
449.500000	0.657000   
450.000000	0.624000   
450.500000	0.444000   
451.000000	0.810000   
451.500000	0.718000   
452.000000	0.599000   
452.500000	0.800000   
453.000000	0.086999   
453.500000	0.382000   
454.000000	0.345000   
454.500000	0.308000   
455.000000	0.349000   
455.500000	0.222000   
456.000000	0.407000   
456.500000	0.370000   
457.000000	0.399000   
457.500000	0.220000   
458.000000	0.004000   
458.500000	0.204000   
459.000000	0.218000   
459.500000	0.104000   
460.000000	0.034000   
460.500000	0.188000   
461.000000	0.063000   
461.500000	-0.171000  
462.000000	0.008000   
462.500000	-0.020000  
463.000000	0.086999   
463.500000	0.156000   
464.000000	0.068000   
464.500000	0.217000   
465.000000	0.247000   
465.500000	0.069000   
466.000000	0.214000   
466.500000	0.103000   
467.000000	0.120000   
467.500000	0.172000   
468.000000	0.170000   
468.500000	0.305000   
469.000000	0.068000   
469.500000	0.131000   
470.000000	0.253000   
470.500000	0.304000   
471.000000	0.176000   
471.500000	0.253000   
472.000000	0.259000   
472.500000	0.376000   
473.000000	0.483000   
473.500000	0.449000   
474.000000	0.242000   
474.500000	0.447000   
475.000000	0.489000   
475.500000	0.240000   
476.000000	0.278000   
476.500000	0.342000   
477.000000	0.605000   
477.500000	0.513000   
478.000000	0.595000   
478.500000	0.587000   
479.000000	0.607000   
479.500000	0.714000   
480.000000	0.698000   
480.500000	0.899000   
481.000000	1.133000   
481.500000	1.049000   
482.000000	0.862000   
482.500000	0.769000   
483.000000	1.286000   
483.500000	1.214000   
484.000000	1.117000   
484.500000	1.377000   
485.000000	1.464000   
485.500000	1.539000   
486.000000	2.001000   
486.500000	1.872000   
487.000000	2.156000   
487.500000	1.904000   
488.000000	2.433000   
488.500000	2.533000   
489.000000	2.539000   
489.500000	2.526000   
490.000000	2.627000   
490.500000	2.411000   
491.000000	1.829000   
491.500000	2.646000   
492.000000	3.221000   
492.500000	3.213000   
493.000000	3.623000   
493.500000	3.859000   
494.000000	4.406000   
494.500000	4.169000   
495.000000	4.471000   
495.500000	5.014000   
496.000000	4.620000   
496.500000	4.549000   
497.000000	4.987000   
497.500000	5.487000   
498.000000	5.082000   
498.500000	5.172000   
499.000000	5.332000   
499.500000	5.287000   
500.000000	5.890000   
500.500000	6.070000   
501.000000	5.763000   
501.500000	6.797000   
502.000000	7.246000   
502.500000	6.035000   
503.000000	6.442000   
503.500000	5.991000   
504.000000	6.400000   
504.500000	7.214000   
505.000000	6.734000   
505.500000	6.999000   
506.000000	7.344000   
506.500000	7.566000   
507.000000	7.553000   
507.500000	6.706000   
508.000000	7.563000   
508.500000	6.785000   
509.000000	7.630000   
509.500000	7.197000   
510.000000	7.390000   
510.500000	7.617000   
511.000000	7.716000   
511.500000	7.094000   
512.000000	6.264000   
512.500000	7.536000   
513.000000	7.798000   
513.500000	7.846000   
514.000000	7.544000   
514.500000	7.340000   
515.000000	7.891000   
515.500000	6.950000   
516.000000	9.067000   
516.500000	7.729000   
517.000000	7.185000   
517.500000	6.730000   
518.000000	7.192000   
518.500000	6.665000   
519.000000	6.661000   
519.500000	7.345000   
520.000000	7.007000   
520.500000	6.236000   
521.000000	6.348000   
521.500000	6.488000   
522.000000	6.664000   
522.500000	6.035000   
523.000000	6.100000   
523.500000	7.044000   
524.000000	6.133000   
524.500000	6.226000   
525.000000	5.722000   
525.500000	6.013000   
526.000000	5.772000   
526.500000	5.837000   
527.000000	6.042000   
527.500000	6.020000   
528.000000	6.207000   
528.500000	5.359000   
529.000000	5.380000   
529.500000	6.235000   
530.000000	4.632000   
530.500000	5.502000   
531.000000	5.109000   
531.500000	4.773000   
532.000000	5.799000   
532.500000	5.871000   
533.000000	5.383000   
533.500000	5.461000   
534.000000	5.309000   
534.500000	5.006000   
535.000000	4.851000   
535.500000	4.166000   
536.000000	4.987000   
536.500000	4.968000   
537.000000	4.414000   
537.500000	5.479000   
538.000000	4.421000   
538.500000	4.483000   
539.000000	4.414000   
539.500000	4.258000   
540.000000	4.607000   
540.500000	4.565000   
541.000000	4.610000   
541.500000	4.555000   
542.000000	4.677000   
542.500000	4.269000   
543.000000	3.842000   
543.500000	4.568000   
544.000000	4.503000   
544.500000	4.360000   
545.000000	4.637000   
545.500000	3.912000   
546.000000	3.984000   
546.500000	4.069000   
547.000000	3.841000   
547.500000	3.701000   
548.000000	3.552000   
548.500000	3.710000   
549.000000	4.204000   
549.500000	3.718000   
550.000000	4.142000   
550.500000	4.137000   
551.000000	3.731000   
551.500000	3.745000   
552.000000	3.350000   
552.500000	4.158000   
553.000000	4.525000   
553.500000	3.743000   
554.000000	3.879000   
554.500000	3.318000   
555.000000	3.024000   
555.500000	3.263000   
556.000000	3.396000   
556.500000	3.405000   
557.000000	2.894000   
557.500000	2.387000   
558.000000	3.038000   
558.500000	3.126000   
559.000000	3.324000   
559.500000	2.987000   
560.000000	3.279000   
560.500000	3.081000   
561.000000	2.858000   
561.500000	2.702000   
562.000000	2.727000   
562.500000	2.765000   
563.000000	2.845000   
563.500000	2.585000   
564.000000	2.677000   
564.500000	2.977000   
565.000000	2.993000   
565.500000	2.447000   
566.000000	2.269000   
566.500000	2.891000   
567.000000	2.565000   
567.500000	2.951000   
568.000000	2.397000   
568.500000	2.168000   
569.000000	2.537000   
569.500000	2.636000   
570.000000	2.334000   
570.500000	2.568000   
571.000000	2.046000   
571.500000	2.085000   
572.000000	1.956000   
572.500000	2.415000   
573.000000	2.517000   
573.500000	2.574000   
574.000000	1.892000   
574.500000	1.894000   
575.000000	2.306000   
575.500000	1.965000   
576.000000	2.081000   
576.500000	2.003000   
577.000000	1.990000   
577.500000	2.115000   
578.000000	1.597000   
578.500000	1.932000   
579.000000	1.811000   
579.500000	1.610000   
580.000000	2.139000   
580.500000	1.512000   
581.000000	1.662000   
581.500000	1.652000   
582.000000	1.555000   
582.500000	1.620000   
583.000000	1.671000   
583.500000	1.675000   
584.000000	1.898000   
584.500000	1.468000   
585.000000	1.230000   
585.500000	1.445000   
586.000000	1.210000   
586.500000	1.326000   
587.000000	1.459000   
587.500000	1.526000   
588.000000	1.719000   
588.500000	1.631000   
589.000000	1.439000   
589.500000	1.452000   
590.000000	1.249000   
590.500000	1.427000   
591.000000	1.287000   
591.500000	1.119000   
592.000000	1.129000   
592.500000	1.583000   
593.000000	0.838000   
593.500000	1.454000   
594.000000	1.231000   
594.500000	1.150000   
595.000000	1.459000   
595.500000	1.586000   
596.000000	1.144000   
596.500000	1.128000   
597.000000	1.408000   
597.500000	1.201000   
598.000000	0.885000   
598.500000	1.230000   
599.000000	0.900000   
599.500000	1.051000   
600.000000	0.852000   
600.500000	1.092000   
601.000000	1.053000   
601.500000	1.230000   
602.000000	0.710000   
602.500000	1.011000   
603.000000	1.039000   
603.500000	1.061000   
604.000000	1.015000   
604.500000	0.945000   
605.000000	0.788000   
605.500000	0.761000   
606.000000	1.231000   
606.500000	0.994000   
607.000000	0.760000   
607.500000	0.972000   
608.000000	0.814999   
608.500000	1.065000   
609.000000	0.678000   
609.500000	0.852000   
610.000000	0.996000   
610.500000	0.808000   
611.000000	0.728000   
611.500000	0.733000   
612.000000	0.730000   
612.500000	0.821000   
613.000000	0.719000   
613.500000	1.046000   
614.000000	0.721000   
614.500000	0.905000   
615.000000	0.708000   
615.500000	0.705000   
616.000000	0.928000   
616.500000	0.917000   
617.000000	0.870000   
617.500000	0.648000   
618.000000	0.576000   
618.500000	0.552000   
619.000000	0.593000   
619.500000	0.687000   
620.000000	0.639000   
620.500000	0.480000   
621.000000	0.842000   
621.500000	0.517000   
622.000000	0.575000   
622.500000	0.738000   
623.000000	0.464000   
623.500000	0.590000   
624.000000	0.512000   
624.500000	0.277000   
625.000000	0.488000   
625.500000	0.593000   
626.000000	0.549000   
626.500000	0.341000   
627.000000	0.620000   
627.500000	0.349000   
628.000000	0.450000   
628.500000	0.635000   
629.000000	0.469000   
629.500000	0.293000   
630.000000	0.405000   
630.500000	0.576000   
631.000000	0.625000   
631.500000	0.598000   
632.000000	0.453000   
632.500000	0.372000   
633.000000	0.275000   
633.500000	0.364000   
634.000000	0.602000   
634.500000	0.793000   
635.000000	0.261000   
635.500000	0.365000   
636.000000	0.690999   
636.500000	0.375000   
637.000000	0.338000   
637.500000	0.343000   
638.000000	0.364000   
638.500000	0.301000   
639.000000	0.321000   
639.500000	0.436000   
640.000000	0.455000   
640.500000	0.390000   
641.000000	0.364000   
641.500000	0.225000   
642.000000	0.331000   
642.500000	0.206000   
643.000000	0.362000   
643.500000	0.234000   
644.000000	0.257000   
644.500000	0.193000   
645.000000	0.164000   
645.500000	0.155000   
646.000000	0.143000   
646.500000	0.138000   
647.000000	0.229000   
647.500000	0.175000   
648.000000	0.169000   
648.500000	0.103000   
649.000000	0.502000   
649.500000	0.278000   
650.000000	0.489000   
650.500000	0.095000   
651.000000	0.224000   
651.500000	0.275000   
652.000000	0.014000   
652.500000	0.111000   
653.000000	0.201000   
653.500000	0.097000   
654.000000	0.210000   
654.500000	0.331000   
655.000000	0.220000   
655.500000	0.241000   
656.000000	0.292000   
656.500000	0.311000   
657.000000	0.304000   
657.500000	0.232000   
658.000000	0.096000   
658.500000	0.198000   
659.000000	0.148000   
659.500000	0.025000   
660.000000	0.141000   
660.500000	0.168000   
661.000000	0.085999   
661.500000	0.154000   
662.000000	0.227000   
662.500000	0.102000   
663.000000	0.085999   
663.500000	0.363000   
664.000000	0.279000   
664.500000	0.181000   
665.000000	0.248000   
665.500000	0.080000   
666.000000	0.014000   
666.500000	0.059000   
667.000000	0.129000   
667.500000	0.035000   
668.000000	0.048000   
668.500000	0.085999   
669.000000	0.101000   
669.500000	0.138000   
670.000000	0.189000   
670.500000	0.000000   
671.000000	0.075000   
671.500000	0.020000   
672.000000	-0.025000  
672.500000	0.062000   
673.000000	0.176000   
673.500000	0.103000   
674.000000	0.156000   
674.500000	0.113000   
675.000000	0.134000   
675.500000	0.034000   
676.000000	0.069000   
676.500000	0.017000   
677.000000	0.292000   
677.500000	0.208000   
678.000000	0.000000   
678.500000	0.028000   
679.000000	0.136000   
679.500000	0.130000   
680.000000	0.100000   
680.500000	0.104000   
681.000000	0.096000   
681.500000	0.027000   
682.000000	0.207000   
682.500000	0.220000   
683.000000	0.123000   
683.500000	0.000000   
684.000000	-0.034000  
684.500000	0.017000   
685.000000	0.085000   
685.500000	0.028000   
686.000000	0.069000   
686.500000	0.034000   
687.000000	0.025000   
687.500000	0.068000   
688.000000	0.114000   
688.500000	0.093000   
689.000000	0.078000   
689.500000	0.058000   
690.000000	-0.004000  
690.500000	-0.085000  
691.000000	0.103000   
691.500000	-0.051000  
692.000000	0.023000   
692.500000	0.021000   
693.000000	0.172000   
693.500000	0.110000   
694.000000	-0.059000  
694.500000	-0.069000  
695.000000	0.003000   
695.500000	-0.006000  
696.000000	0.026000   
696.500000	0.006000   
697.000000	-0.041000  
697.500000	0.069000   
698.000000	-0.017000  
698.500000	0.000000   
699.000000	-0.027000  
699.500000	0.028000   
700.000000	0.114000   
700.500000	0.079000   
701.000000	0.128000   
701.500000	0.103000   
702.000000	-0.025000  
702.500000	-0.014000  
703.000000	0.021000   
703.500000	0.003000   
704.000000	0.069000   
704.500000	0.241000   
705.000000	-0.103000  
705.500000	0.171000   
706.000000	0.018000   
706.500000	0.065000   
707.000000	0.005000   
707.500000	0.034000   
708.000000	0.093000   
708.500000	0.154000   
709.000000	0.030000   
709.500000	-0.004000  
710.000000	0.008999   
710.500000	0.003000   
711.000000	0.112000   
711.500000	-0.017000  
712.000000	0.120000   
712.500000	0.000000   
713.000000	0.075000   
713.500000	0.038000   
714.000000	0.046000   
714.500000	0.020000   
715.000000	0.042000   
715.500000	-0.026000  
716.000000	-0.071999  
716.500000	0.004000   
717.000000	0.121000   
717.500000	0.003000   
718.000000	0.021000   
718.500000	0.000000   
719.000000	0.051000   
719.500000	-0.017000  
720.000000	0.020000   
720.500000	0.001000   
721.000000	0.065000   
721.500000	-0.120000  
722.000000	-0.047000  
722.500000	0.008999   
723.000000	0.023000   
723.500000	-0.004000  
724.000000	0.087999   
724.500000	0.011000   
725.000000	-0.017000  
725.500000	-0.068000  
726.000000	0.034000   
726.500000	0.156000   
727.000000	-0.147000  
727.500000	0.068000   
728.000000	-0.017000  
728.500000	-0.083000  
729.000000	-0.125000  
729.500000	-0.043000  
730.000000	0.079000   
730.500000	0.106000   
731.000000	0.017000   
731.500000	-0.045000  
732.000000	0.031000   
732.500000	0.000000   
733.000000	0.034000   
733.500000	0.000000   
734.000000	0.023000   
734.500000	-0.017000  
735.000000	-0.012000  
735.500000	-0.007000  
736.000000	0.004000   
736.500000	0.017000   
737.000000	-0.062000  
737.500000	-0.082000  
738.000000	0.008999   
738.500000	-0.007000  
739.000000	0.039000   
739.500000	-0.017000  
740.000000	-0.017000  
740.500000	0.034000   
741.000000	0.000000   
741.500000	0.014000   
742.000000	0.060000   
742.500000	0.020000   
743.000000	0.062000   
743.500000	0.069000   
744.000000	0.014000   
744.500000	0.013000   
745.000000	-0.013000  
745.500000	-0.017000  
746.000000	-0.003000  
746.500000	0.157000   
747.000000	0.102000   
747.500000	0.000000   
748.000000	-0.010000  
748.500000	0.093000   
749.000000	0.089000   
749.500000	0.021000   
750.000000	0.030000   
750.500000	-0.017000  
751.000000	0.017000   
751.500000	0.020000   
752.000000	-0.039000  
752.500000	0.017000   
753.000000	0.103000   
753.500000	-0.017000  
754.000000	0.017000   
754.500000	-0.085999  
755.000000	-0.006000  
755.500000	0.048000   
756.000000	0.077000   
756.500000	-0.007000  
757.000000	0.018000   
757.500000	0.026000   
758.000000	-0.006000  
758.500000	0.000000   
759.000000	-0.013000  
759.500000	0.011000   
760.000000	-0.011000  
760.500000	0.000000   
761.000000	0.000000   
761.500000	0.225000   
762.000000	-0.004000  
762.500000	0.007000   
763.000000	0.073000   
763.500000	-0.024000  
764.000000	-0.027000  
764.500000	-0.052000  
765.000000	0.091000   
765.500000	0.062000   
766.000000	-0.060000  
766.500000	0.193000   
767.000000	-0.031000  
767.500000	0.103000   
768.000000	0.153000   
768.500000	0.294000   
769.000000	0.522000   
769.500000	0.484000   
770.000000	1.062000   
770.500000	1.541000   
771.000000	2.320000   
771.500000	2.934000   
772.000000	3.670000   
772.500000	5.570000   
773.000000	8.157999   
773.500000	8.930999   
774.000000	11.962000  
774.500000	14.917000  
775.000000	17.086000  
775.500000	16.882000  
776.000000	20.038000  
776.500000	21.226000  
777.000000	21.038000  
777.500000	21.917000  
778.000000	21.115000  
778.500000	20.281000  
779.000000	18.469000  
779.500000	15.724000  
780.000000	14.096000  
780.500000	12.777000  
781.000000	9.595000   
781.500000	7.736000   
782.000000	5.433000   
782.500000	3.673000   
783.000000	1.962000   
783.500000	1.520000   
784.000000	1.043000   
784.500000	0.681000   
785.000000	0.399000   
785.500000	0.215000   
786.000000	0.061000   
786.500000	0.045000   
787.000000	0.052000   
787.500000	-0.017000  
788.000000	-0.006000  
788.500000	-0.069000  
789.000000	0.000000   
789.500000	0.034000   
790.000000	0.055000   
790.500000	-0.004000  
791.000000	-0.030000  
791.500000	-0.041000  
792.000000	-0.007000  
792.500000	0.061000   
793.000000	0.136000   
793.500000	0.044000   
794.000000	-0.056000  
794.500000	-0.041000  
795.000000	0.049000   
795.500000	0.239000   
796.000000	-0.121000  
796.500000	0.034000   
797.000000	0.021000   
797.500000	0.023000   
798.000000	-0.012000  
798.500000	0.021000   
799.000000	0.024000   
799.500000	-0.017000  
800.000000	-0.006000  
800.500000	-0.021000  
801.000000	-0.061000  
801.500000	-0.109000  
802.000000	0.101000   
802.500000	0.017000   
803.000000	-0.104000  
803.500000	0.051000   
804.000000	0.048000   
804.500000	-0.017000  
805.000000	0.034000   
805.500000	-0.024000  
806.000000	0.021000   
806.500000	0.060000   
807.000000	-0.086999  
807.500000	-0.062000  
808.000000	-0.013000  
808.500000	0.038000   
809.000000	0.023000   
809.500000	0.034000   
810.000000	-0.017000  
810.500000	-0.017000  
811.000000	-0.143000  
811.500000	-0.027000  
812.000000	0.022000   
812.500000	0.051000   
813.000000	-0.007000  
813.500000	-0.017000  
814.000000	-0.006000  
814.500000	-0.041000  
815.000000	-0.004000  
815.500000	0.045000   
816.000000	-0.017000  
816.500000	-0.017000  
817.000000	-0.052000  
817.500000	0.000000   
818.000000	-0.004000  
818.500000	0.004000   
819.000000	0.056000   
819.500000	-0.069000  
820.000000	-0.071999  
820.500000	-0.043000  
821.000000	-0.097000  
821.500000	-0.082000  
822.000000	-0.081000  
822.500000	-0.181000  
823.000000	-0.054000  
823.500000	-0.034000  
824.000000	0.000000   
824.500000	-0.034000  
825.000000	-0.021000  
825.500000	-0.027000  
826.000000	0.031000   
826.500000	0.085999   
827.000000	0.027000   
827.500000	-0.008999  
828.000000	-0.055000  
828.500000	-0.027000  
829.000000	0.052000   
829.500000	-0.014000  
830.000000	-0.006000  
830.500000	0.068000   
831.000000	0.000000   
831.500000	-0.017000  
832.000000	-0.004000  
832.500000	-0.010000  
833.000000	0.008000   
833.500000	-0.024000  
834.000000	-0.013000  
834.500000	0.000000   
835.000000	-0.006000  
835.500000	0.042000   
836.000000	-0.099000  
836.500000	-0.031000  
837.000000	0.014000   
837.500000	0.172000   
838.000000	-0.017000  
838.500000	0.051000   
839.000000	-0.028000  
839.500000	-0.041000  
840.000000	0.073000   
840.500000	0.038000   
841.000000	-0.013000  
841.500000	-0.044000  
842.000000	-0.031000  
842.500000	-0.014000  
843.000000	0.017000   
843.500000	-0.007000  
844.000000	-0.017000  
844.500000	-0.017000  
845.000000	0.034000   
845.500000	0.000000   
846.000000	0.014000   
846.500000	0.054000   
847.000000	0.000000   
847.500000	-0.014000  
848.000000	0.008000   
848.500000	-0.008999  
849.000000	-0.024000  
849.500000	-0.034000  
850.000000	-0.029000  
850.500000	0.039000   
851.000000	0.065000   
851.500000	0.000000   
852.000000	0.154000   
852.500000	-0.017000  
853.000000	0.034000   
853.500000	-0.045000  
854.000000	-0.061000  
854.500000	0.003000   
855.000000	0.004000   
855.500000	0.069000   
856.000000	0.041000   
856.500000	-0.021000  
857.000000	0.005000   
857.500000	0.003000   
858.000000	-0.014000  
858.500000	-0.172000  
859.000000	-0.085999  
859.500000	-0.137000  
860.000000	-0.004000  
860.500000	-0.017000  
861.000000	-0.022000  
861.500000	-0.020000  
862.000000	0.021000   
862.500000	0.017000   
863.000000	-0.006000  
863.500000	0.000000   
864.000000	0.026000   
864.500000	-0.007000  
865.000000	-0.031000  
865.500000	-0.085999  
866.000000	0.000000   
866.500000	-0.017000  
867.000000	-0.030000  
867.500000	-0.035000  
868.000000	-0.078000  
868.500000	-0.007000  
869.000000	-0.010000  
869.500000	-0.085999  
870.000000	-0.068000  
870.500000	0.042000   
871.000000	-0.008999  
871.500000	-0.048000  
872.000000	-0.010000  
872.500000	0.000000   
873.000000	0.000000   
873.500000	0.000000   
874.000000	-0.068000  
874.500000	-0.032000  
875.000000	-0.117000  
875.500000	-0.014000  
876.000000	-0.027000  
876.500000	-0.008000  
877.000000	0.062000   
877.500000	0.103000   
878.000000	0.025000   
878.500000	0.014000   
879.000000	0.031000   
879.500000	-0.034000  
880.000000	0.000000   
880.500000	-0.051000  
881.000000	-0.004000  
881.500000	-0.010000  
882.000000	0.012000   
882.500000	-0.007000  
883.000000	-0.017000  
883.500000	-0.017000  
884.000000	0.065000   
884.500000	0.131000   
885.000000	0.008999   
885.500000	0.007000   
886.000000	0.003000   
886.500000	0.069000   
887.000000	0.085999   
887.500000	0.000000   
888.000000	0.034000   
888.500000	-0.030000  
889.000000	-0.017000  
889.500000	0.032000   
890.000000	0.062000   
890.500000	0.000000   
891.000000	-0.042000  
891.500000	-0.090000  
892.000000	-0.090000  
892.500000	-0.017000  
893.000000	-0.028000  
893.500000	0.171000   
894.000000	0.034000   
894.500000	0.017000   
895.000000	0.010000   
895.500000	-0.103000  
896.000000	-0.111000  
896.500000	0.034000   
897.000000	-0.065000  
897.500000	-0.025000  
898.000000	-0.069000  
898.500000	0.056000   
899.000000	0.051000   
899.500000	-0.014000  
900.000000	0.034000   
900.500000	0.097000   

