PE FL                   SPECTRUM    ASCII       PEDS        1.60        
  -1
SW4_005.TXT
15/03/11
14:29:00.00
15/03/11
14:31:59.00
GAB, RAF
FLUOROSCEIN SODIUM 3*10^-7 VERSUCH 6.1 NR. 3 400NM
900.500000
1









LS50-B
400.00
2.50
2.50
SCAN
1
20
100
100
0
200
0
1
0
1
3
ON
900 390 
1 0 0
#HDR
-1
-1
#GR
NM

0.00002384185791015625
0.0
370.000000
0.500000
1062
8
378.753000
-0.169000
#DATA
370.000000	0.015000   
370.500000	0.026000   
371.000000	0.119000   
371.500000	0.089000   
372.000000	0.111000   
372.500000	0.046000   
373.000000	-0.007000  
373.500000	0.022000   
374.000000	-0.020000  
374.500000	-0.019000  
375.000000	0.112000   
375.500000	0.032000   
376.000000	0.144000   
376.500000	-0.031000  
377.000000	0.124000   
377.500000	0.150000   
378.000000	0.035000   
378.500000	0.000000   
379.000000	0.044000   
379.500000	0.085999   
380.000000	0.218000   
380.500000	0.251000   
381.000000	0.051000   
381.500000	0.169000   
382.000000	0.360000   
382.500000	0.096000   
383.000000	0.112000   
383.500000	0.111000   
384.000000	0.269000   
384.500000	0.204000   
385.000000	0.388000   
385.500000	0.165000   
386.000000	0.144000   
386.500000	0.247000   
387.000000	0.226000   
387.500000	0.218000   
388.000000	0.162000   
388.500000	0.297000   
389.000000	0.448000   
389.500000	0.206000   
390.000000	0.282000   
390.500000	0.334000   
391.000000	0.431000   
391.500000	0.363000   
392.000000	0.342000   
392.500000	0.439000   
393.000000	0.620000   
393.500000	1.479000   
394.000000	2.528000   
394.500000	4.602000   
395.000000	10.474000  
395.500000	21.034000  
396.000000	38.353000  
396.500000	71.681000  
397.000000	122.489000 
397.500000	175.077000 
398.000000	259.006000 
398.500000	310.965000 
399.000000	357.403000 
399.500000	378.753000 
400.000000	365.845000 
400.500000	318.949000 
401.000000	253.157000 
401.500000	189.561000 
402.000000	121.835000 
402.500000	75.994000  
403.000000	44.599000  
403.500000	20.008000  
404.000000	8.936000   
404.500000	4.629000   
405.000000	2.110000   
405.500000	0.971000   
406.000000	0.970000   
406.500000	0.764000   
407.000000	0.744000   
407.500000	0.462000   
408.000000	0.399000   
408.500000	0.518000   
409.000000	0.363000   
409.500000	0.552000   
410.000000	0.443000   
410.500000	0.386000   
411.000000	0.192000   
411.500000	0.473000   
412.000000	0.350000   
412.500000	0.426000   
413.000000	0.226000   
413.500000	0.194000   
414.000000	0.102000   
414.500000	0.086999   
415.000000	0.179000   
415.500000	0.262000   
416.000000	0.263000   
416.500000	0.165000   
417.000000	0.104000   
417.500000	0.176000   
418.000000	0.385000   
418.500000	0.192000   
419.000000	0.290000   
419.500000	0.273000   
420.000000	0.216000   
420.500000	0.277000   
421.000000	0.098000   
421.500000	0.070000   
422.000000	0.053000   
422.500000	0.095000   
423.000000	0.177000   
423.500000	0.101000   
424.000000	0.319000   
424.500000	0.064000   
425.000000	0.015000   
425.500000	0.063000   
426.000000	-0.012000  
426.500000	0.045000   
427.000000	0.013000   
427.500000	0.189000   
428.000000	0.198000   
428.500000	0.159000   
429.000000	0.168000   
429.500000	0.095000   
430.000000	0.003000   
430.500000	0.227000   
431.000000	0.236000   
431.500000	0.128000   
432.000000	0.000000   
432.500000	0.144000   
433.000000	0.212000   
433.500000	0.244000   
434.000000	0.280000   
434.500000	0.217000   
435.000000	0.212000   
435.500000	0.261000   
436.000000	0.233000   
436.500000	0.211000   
437.000000	-0.060000  
437.500000	0.118000   
438.000000	0.140000   
438.500000	0.095000   
439.000000	0.158000   
439.500000	0.000000   
440.000000	0.087999   
440.500000	-0.018000  
441.000000	0.116000   
441.500000	0.022000   
442.000000	0.035000   
442.500000	0.016000   
443.000000	0.073000   
443.500000	0.070000   
444.000000	0.184000   
444.500000	0.056000   
445.000000	-0.048000  
445.500000	0.000000   
446.000000	0.287000   
446.500000	0.159000   
447.000000	0.064000   
447.500000	0.048000   
448.000000	-0.023000  
448.500000	0.036000   
449.000000	0.121000   
449.500000	0.104000   
450.000000	0.133000   
450.500000	0.079000   
451.000000	0.012000   
451.500000	0.025000   
452.000000	0.146000   
452.500000	0.079000   
453.000000	0.272000   
453.500000	0.317000   
454.000000	0.297000   
454.500000	0.504000   
455.000000	0.325000   
455.500000	0.308000   
456.000000	0.327000   
456.500000	0.212000   
457.000000	0.473000   
457.500000	0.446000   
458.000000	0.340000   
458.500000	0.553000   
459.000000	0.423000   
459.500000	0.464000   
460.000000	0.593000   
460.500000	0.401000   
461.000000	0.464000   
461.500000	0.388000   
462.000000	0.430000   
462.500000	0.504000   
463.000000	0.415000   
463.500000	0.649000   
464.000000	0.659000   
464.500000	0.495000   
465.000000	0.166000   
465.500000	0.459000   
466.000000	0.402000   
466.500000	0.270000   
467.000000	0.305000   
467.500000	0.413000   
468.000000	0.329000   
468.500000	0.207000   
469.000000	0.131000   
469.500000	0.311000   
470.000000	0.316000   
470.500000	0.228000   
471.000000	0.151000   
471.500000	0.204000   
472.000000	0.435000   
472.500000	0.175000   
473.000000	0.352000   
473.500000	0.285000   
474.000000	0.636000   
474.500000	0.126000   
475.000000	0.302000   
475.500000	0.382000   
476.000000	0.277000   
476.500000	0.417000   
477.000000	0.507000   
477.500000	0.556000   
478.000000	0.490000   
478.500000	0.663000   
479.000000	0.744000   
479.500000	0.910000   
480.000000	0.864000   
480.500000	0.669000   
481.000000	0.981000   
481.500000	0.660000   
482.000000	1.137000   
482.500000	1.274000   
483.000000	1.072000   
483.500000	0.658000   
484.000000	0.798000   
484.500000	1.344000   
485.000000	1.739000   
485.500000	1.696000   
486.000000	1.701000   
486.500000	1.892000   
487.000000	1.768000   
487.500000	1.736000   
488.000000	2.280000   
488.500000	1.762000   
489.000000	2.321000   
489.500000	2.740000   
490.000000	2.710000   
490.500000	2.840000   
491.000000	2.530000   
491.500000	2.696000   
492.000000	2.970000   
492.500000	3.474000   
493.000000	3.676000   
493.500000	3.721000   
494.000000	3.524000   
494.500000	3.569000   
495.000000	3.341000   
495.500000	4.168000   
496.000000	4.286000   
496.500000	4.684000   
497.000000	4.382000   
497.500000	4.947000   
498.000000	5.786000   
498.500000	5.615000   
499.000000	5.220000   
499.500000	5.400000   
500.000000	5.762000   
500.500000	5.533000   
501.000000	5.569000   
501.500000	5.933000   
502.000000	5.787000   
502.500000	6.182000   
503.000000	6.248000   
503.500000	7.133000   
504.000000	6.947000   
504.500000	6.812000   
505.000000	7.016000   
505.500000	7.562000   
506.000000	7.164000   
506.500000	6.768000   
507.000000	7.350000   
507.500000	6.525000   
508.000000	7.526000   
508.500000	7.010000   
509.000000	7.249000   
509.500000	7.106000   
510.000000	7.906000   
510.500000	8.249000   
511.000000	6.979000   
511.500000	7.427000   
512.000000	7.706000   
512.500000	7.808000   
513.000000	8.326000   
513.500000	8.101000   
514.000000	7.618000   
514.500000	7.881000   
515.000000	7.504000   
515.500000	8.023999   
516.000000	7.047000   
516.500000	6.494000   
517.000000	6.815000   
517.500000	8.016999   
518.000000	7.355000   
518.500000	7.376000   
519.000000	6.646000   
519.500000	6.991000   
520.000000	6.839000   
520.500000	6.787000   
521.000000	5.920000   
521.500000	5.575000   
522.000000	6.014000   
522.500000	5.930000   
523.000000	5.855000   
523.500000	5.831000   
524.000000	6.291000   
524.500000	6.873000   
525.000000	6.454000   
525.500000	6.501000   
526.000000	6.649000   
526.500000	5.804000   
527.000000	6.157000   
527.500000	6.046000   
528.000000	5.669000   
528.500000	5.547000   
529.000000	6.002000   
529.500000	5.057000   
530.000000	5.583000   
530.500000	5.445000   
531.000000	5.902000   
531.500000	5.367000   
532.000000	5.931000   
532.500000	4.523000   
533.000000	4.773000   
533.500000	5.655000   
534.000000	5.416000   
534.500000	5.185000   
535.000000	4.784000   
535.500000	4.605000   
536.000000	4.182000   
536.500000	3.994000   
537.000000	4.554000   
537.500000	4.873000   
538.000000	4.392000   
538.500000	4.102000   
539.000000	3.802000   
539.500000	4.333000   
540.000000	4.497000   
540.500000	4.673000   
541.000000	4.507000   
541.500000	3.944000   
542.000000	3.570000   
542.500000	4.606000   
543.000000	5.116000   
543.500000	4.128000   
544.000000	3.767000   
544.500000	3.835000   
545.000000	4.536000   
545.500000	3.882000   
546.000000	3.690000   
546.500000	3.861000   
547.000000	3.319000   
547.500000	4.219000   
548.000000	4.350000   
548.500000	3.892000   
549.000000	3.529000   
549.500000	3.663000   
550.000000	3.656000   
550.500000	3.841000   
551.000000	3.239000   
551.500000	4.279000   
552.000000	3.405000   
552.500000	3.406000   
553.000000	3.610000   
553.500000	3.723000   
554.000000	3.070000   
554.500000	3.609000   
555.000000	3.758000   
555.500000	3.531000   
556.000000	3.075000   
556.500000	2.529000   
557.000000	2.964000   
557.500000	3.080000   
558.000000	3.351000   
558.500000	3.272000   
559.000000	2.957000   
559.500000	3.107000   
560.000000	3.027000   
560.500000	2.621000   
561.000000	2.470000   
561.500000	2.565000   
562.000000	2.620000   
562.500000	2.979000   
563.000000	3.050000   
563.500000	2.959000   
564.000000	2.906000   
564.500000	2.333000   
565.000000	2.192000   
565.500000	2.707000   
566.000000	2.910000   
566.500000	2.869000   
567.000000	2.490000   
567.500000	2.787000   
568.000000	2.683000   
568.500000	2.318000   
569.000000	2.468000   
569.500000	2.165000   
570.000000	1.835000   
570.500000	2.216000   
571.000000	2.453000   
571.500000	1.603000   
572.000000	2.378000   
572.500000	2.066000   
573.000000	2.449000   
573.500000	2.163000   
574.000000	1.778000   
574.500000	2.039000   
575.000000	2.145000   
575.500000	2.112000   
576.000000	2.231000   
576.500000	2.144000   
577.000000	1.862000   
577.500000	1.583000   
578.000000	1.804000   
578.500000	1.499000   
579.000000	2.073000   
579.500000	2.633000   
580.000000	1.703000   
580.500000	1.520000   
581.000000	1.433000   
581.500000	1.551000   
582.000000	1.444000   
582.500000	1.609000   
583.000000	1.671000   
583.500000	1.522000   
584.000000	1.650000   
584.500000	1.628000   
585.000000	1.854000   
585.500000	1.213000   
586.000000	1.229000   
586.500000	1.341000   
587.000000	1.390000   
587.500000	1.220000   
588.000000	1.178000   
588.500000	1.651000   
589.000000	1.125000   
589.500000	1.106000   
590.000000	1.108000   
590.500000	1.044000   
591.000000	1.163000   
591.500000	1.155000   
592.000000	1.253000   
592.500000	1.302000   
593.000000	1.356000   
593.500000	1.366000   
594.000000	1.333000   
594.500000	1.447000   
595.000000	1.645000   
595.500000	1.313000   
596.000000	1.147000   
596.500000	0.944000   
597.000000	1.367000   
597.500000	1.178000   
598.000000	1.056000   
598.500000	1.268000   
599.000000	1.343000   
599.500000	0.883000   
600.000000	0.964000   
600.500000	0.786000   
601.000000	1.305000   
601.500000	1.038000   
602.000000	1.169000   
602.500000	0.959000   
603.000000	1.112000   
603.500000	1.013000   
604.000000	0.868000   
604.500000	0.892000   
605.000000	0.825000   
605.500000	1.093000   
606.000000	1.245000   
606.500000	0.653000   
607.000000	0.873000   
607.500000	0.847000   
608.000000	0.969000   
608.500000	0.785000   
609.000000	0.887000   
609.500000	0.899000   
610.000000	0.765000   
610.500000	0.692999   
611.000000	0.893000   
611.500000	0.893000   
612.000000	0.781000   
612.500000	0.716000   
613.000000	0.601000   
613.500000	0.703000   
614.000000	0.765000   
614.500000	0.445000   
615.000000	0.600000   
615.500000	0.783000   
616.000000	0.690999   
616.500000	0.626000   
617.000000	0.539000   
617.500000	0.706000   
618.000000	0.571000   
618.500000	0.696000   
619.000000	0.607000   
619.500000	0.907000   
620.000000	0.828000   
620.500000	0.704000   
621.000000	1.183000   
621.500000	0.638000   
622.000000	0.447000   
622.500000	0.485000   
623.000000	0.360000   
623.500000	0.379000   
624.000000	0.466000   
624.500000	0.542000   
625.000000	0.814999   
625.500000	0.815999   
626.000000	0.535000   
626.500000	0.627000   
627.000000	0.667000   
627.500000	0.484000   
628.000000	0.270000   
628.500000	0.639000   
629.000000	0.605000   
629.500000	0.586000   
630.000000	0.626000   
630.500000	0.569000   
631.000000	0.456000   
631.500000	0.553000   
632.000000	0.672000   
632.500000	0.575000   
633.000000	0.331000   
633.500000	0.286000   
634.000000	0.276000   
634.500000	0.287000   
635.000000	0.269000   
635.500000	0.288000   
636.000000	0.245000   
636.500000	0.212000   
637.000000	0.245000   
637.500000	0.382000   
638.000000	0.452000   
638.500000	0.400000   
639.000000	0.472000   
639.500000	0.252000   
640.000000	0.509000   
640.500000	0.512000   
641.000000	0.467000   
641.500000	0.355000   
642.000000	0.175000   
642.500000	0.141000   
643.000000	0.249000   
643.500000	0.292000   
644.000000	0.494000   
644.500000	0.291000   
645.000000	0.339000   
645.500000	0.269000   
646.000000	0.107000   
646.500000	0.074000   
647.000000	0.234000   
647.500000	0.365000   
648.000000	0.398000   
648.500000	0.206000   
649.000000	0.271000   
649.500000	-0.031000  
650.000000	0.365000   
650.500000	0.501000   
651.000000	0.369000   
651.500000	0.275000   
652.000000	0.114000   
652.500000	0.285000   
653.000000	0.209000   
653.500000	0.153000   
654.000000	0.095000   
654.500000	-0.001000  
655.000000	0.201000   
655.500000	0.000000   
656.000000	0.399000   
656.500000	0.482000   
657.000000	0.193000   
657.500000	0.184000   
658.000000	0.070999   
658.500000	0.058000   
659.000000	0.124000   
659.500000	0.159000   
660.000000	0.213000   
660.500000	0.083000   
661.000000	0.071999   
661.500000	0.095000   
662.000000	0.209000   
662.500000	0.064000   
663.000000	0.220000   
663.500000	0.209000   
664.000000	0.280000   
664.500000	0.077000   
665.000000	0.132000   
665.500000	0.240000   
666.000000	0.230000   
666.500000	0.087999   
667.000000	0.118000   
667.500000	0.091000   
668.000000	0.024000   
668.500000	0.102000   
669.000000	0.076000   
669.500000	0.110000   
670.000000	0.258000   
670.500000	0.224000   
671.000000	0.325000   
671.500000	0.247000   
672.000000	-0.095000  
672.500000	0.011000   
673.000000	0.095000   
673.500000	0.167000   
674.000000	0.171000   
674.500000	0.128000   
675.000000	0.201000   
675.500000	0.324000   
676.000000	0.248000   
676.500000	0.128000   
677.000000	0.159000   
677.500000	-0.047000  
678.000000	0.016000   
678.500000	0.084000   
679.000000	0.112000   
679.500000	0.121000   
680.000000	0.037000   
680.500000	0.040000   
681.000000	0.050000   
681.500000	0.156000   
682.000000	0.346000   
682.500000	0.189000   
683.000000	0.092000   
683.500000	0.000000   
684.000000	0.224000   
684.500000	-0.080000  
685.000000	0.024000   
685.500000	0.026000   
686.000000	0.081000   
686.500000	-0.044000  
687.000000	0.016000   
687.500000	0.031000   
688.000000	0.106000   
688.500000	0.128000   
689.000000	0.071999   
689.500000	0.037000   
690.000000	0.018000   
690.500000	0.032000   
691.000000	0.032000   
691.500000	0.255000   
692.000000	0.004000   
692.500000	0.109000   
693.000000	-0.015000  
693.500000	-0.001000  
694.000000	-0.015000  
694.500000	0.007000   
695.000000	0.032000   
695.500000	-0.003000  
696.000000	0.037000   
696.500000	0.000000   
697.000000	0.022000   
697.500000	0.047000   
698.000000	-0.015000  
698.500000	0.032000   
699.000000	-0.045000  
699.500000	0.155000   
700.000000	0.099000   
700.500000	-0.018000  
701.000000	0.006000   
701.500000	0.007000   
702.000000	0.038000   
702.500000	0.025000   
703.000000	0.012000   
703.500000	0.093000   
704.000000	0.008999   
704.500000	0.031000   
705.000000	-0.064000  
705.500000	0.000000   
706.000000	-0.018000  
706.500000	0.022000   
707.000000	0.021000   
707.500000	0.095000   
708.000000	0.060000   
708.500000	0.063000   
709.000000	0.085000   
709.500000	-0.014000  
710.000000	0.012000   
710.500000	0.073000   
711.000000	0.040000   
711.500000	0.000000   
712.000000	-0.128000  
712.500000	0.031000   
713.000000	0.167000   
713.500000	-0.057000  
714.000000	-0.008000  
714.500000	0.070000   
715.000000	0.105000   
715.500000	0.064000   
716.000000	-0.083000  
716.500000	0.083000   
717.000000	0.139000   
717.500000	0.111000   
718.000000	0.022000   
718.500000	0.048000   
719.000000	0.096000   
719.500000	-0.096000  
720.000000	-0.045000  
720.500000	-0.100000  
721.000000	-0.092000  
721.500000	0.006000   
722.000000	0.095000   
722.500000	0.127000   
723.000000	0.006000   
723.500000	0.032000   
724.000000	-0.001000  
724.500000	-0.057000  
725.000000	-0.012000  
725.500000	0.000000   
726.000000	0.016000   
726.500000	0.000000   
727.000000	0.013000   
727.500000	0.045000   
728.000000	-0.007000  
728.500000	-0.001000  
729.000000	-0.031000  
729.500000	0.024000   
730.000000	0.004000   
730.500000	0.006000   
731.000000	0.108000   
731.500000	0.234000   
732.000000	0.025000   
732.500000	0.031000   
733.000000	0.000000   
733.500000	-0.015000  
734.000000	0.041000   
734.500000	-0.038000  
735.000000	-0.008000  
735.500000	-0.058000  
736.000000	-0.082000  
736.500000	-0.048000  
737.000000	0.045000   
737.500000	0.115000   
738.000000	-0.041000  
738.500000	0.070000   
739.000000	-0.029000  
739.500000	-0.015000  
740.000000	0.016000   
740.500000	0.000000   
741.000000	-0.066000  
741.500000	0.053000   
742.000000	0.252000   
742.500000	0.021000   
743.000000	-0.008999  
743.500000	0.000000   
744.000000	0.048000   
744.500000	0.050000   
745.000000	0.007000   
745.500000	0.000000   
746.000000	-0.012000  
746.500000	0.000000   
747.000000	0.126000   
747.500000	0.000000   
748.000000	-0.008000  
748.500000	0.012000   
749.000000	0.016000   
749.500000	0.050000   
750.000000	0.044000   
750.500000	0.016000   
751.000000	0.016000   
751.500000	0.067000   
752.000000	0.019000   
752.500000	-0.025000  
753.000000	-0.044000  
753.500000	-0.032000  
754.000000	-0.080000  
754.500000	-0.015000  
755.000000	0.051000   
755.500000	0.152000   
756.000000	0.000000   
756.500000	-0.006000  
757.000000	0.017000   
757.500000	0.047000   
758.000000	0.080000   
758.500000	0.035000   
759.000000	-0.039000  
759.500000	0.067000   
760.000000	0.019000   
760.500000	-0.031000  
761.000000	0.000000   
761.500000	0.207000   
762.000000	-0.024000  
762.500000	-0.020000  
763.000000	-0.080000  
763.500000	-0.032000  
764.000000	-0.025000  
764.500000	0.016000   
765.000000	0.000000   
765.500000	0.026000   
766.000000	-0.044000  
766.500000	-0.015000  
767.000000	-0.051000  
767.500000	-0.144000  
768.000000	0.015000   
768.500000	0.128000   
769.000000	-0.019000  
769.500000	-0.091000  
770.000000	-0.047000  
770.500000	0.085999   
771.000000	0.073000   
771.500000	-0.055000  
772.000000	-0.031000  
772.500000	-0.010000  
773.000000	0.020000   
773.500000	-0.020000  
774.000000	0.032000   
774.500000	0.032000   
775.000000	-0.016000  
775.500000	0.031000   
776.000000	0.001000   
776.500000	0.108000   
777.000000	0.019000   
777.500000	0.023000   
778.000000	0.099000   
778.500000	0.048000   
779.000000	0.007000   
779.500000	0.021000   
780.000000	-0.020000  
780.500000	-0.006000  
781.000000	-0.077000  
781.500000	0.000000   
782.000000	0.063000   
782.500000	-0.079000  
783.000000	0.063000   
783.500000	0.159000   
784.000000	0.040000   
784.500000	0.044000   
785.000000	0.008999   
785.500000	0.000000   
786.000000	-0.096000  
786.500000	-0.007000  
787.000000	0.070999   
787.500000	0.037000   
788.000000	0.108000   
788.500000	0.270000   
789.000000	0.466000   
789.500000	0.717000   
790.000000	0.936000   
790.500000	1.583000   
791.000000	1.976000   
791.500000	3.190000   
792.000000	3.848000   
792.500000	5.100000   
793.000000	7.978000   
793.500000	9.717000   
794.000000	11.310000  
794.500000	14.654000  
795.000000	15.697000  
795.500000	16.109000  
796.000000	19.064000  
796.500000	20.281000  
797.000000	19.946000  
797.500000	20.789000  
798.000000	20.713000  
798.500000	18.652000  
799.000000	15.683000  
799.500000	14.914000  
800.000000	13.571000  
800.500000	11.473000  
801.000000	8.959000   
801.500000	6.953000   
802.000000	5.144000   
802.500000	3.287000   
803.000000	2.356000   
803.500000	2.547000   
804.000000	1.181000   
804.500000	0.981000   
805.000000	0.687999   
805.500000	0.456000   
806.000000	0.271000   
806.500000	0.231000   
807.000000	0.169000   
807.500000	0.031000   
808.000000	0.108000   
808.500000	-0.035000  
809.000000	-0.119000  
809.500000	-0.015000  
810.000000	0.144000   
810.500000	-0.096000  
811.000000	0.007000   
811.500000	0.039000   
812.000000	0.027000   
812.500000	-0.047000  
813.000000	0.026000   
813.500000	0.031000   
814.000000	0.029000   
814.500000	0.105000   
815.000000	0.023000   
815.500000	-0.003000  
816.000000	0.000000   
816.500000	0.032000   
817.000000	0.063000   
817.500000	0.000000   
818.000000	0.021000   
818.500000	-0.020000  
819.000000	-0.028000  
819.500000	-0.022000  
820.000000	-0.018000  
820.500000	-0.048000  
821.000000	-0.029000  
821.500000	0.006000   
822.000000	0.071999   
822.500000	0.096000   
823.000000	0.044000   
823.500000	0.000000   
824.000000	-0.031000  
824.500000	0.032000   
825.000000	-0.004000  
825.500000	-0.016000  
826.000000	-0.015000  
826.500000	-0.016000  
827.000000	-0.036000  
827.500000	0.000000   
828.000000	0.035000   
828.500000	0.045000   
829.000000	0.171000   
829.500000	0.041000   
830.000000	-0.025000  
830.500000	0.000000   
831.000000	-0.032000  
831.500000	0.079000   
832.000000	0.000000   
832.500000	-0.007000  
833.000000	-0.023000  
833.500000	0.026000   
834.000000	0.037000   
834.500000	-0.016000  
835.000000	-0.021000  
835.500000	-0.063000  
836.000000	-0.047000  
836.500000	0.019000   
837.000000	-0.006000  
837.500000	-0.016000  
838.000000	-0.016000  
838.500000	-0.111000  
839.000000	-0.003000  
839.500000	0.001000   
840.000000	0.056000   
840.500000	0.000000   
841.000000	-0.041000  
841.500000	-0.031000  
842.000000	0.065000   
842.500000	0.060000   
843.000000	0.016000   
843.500000	0.003000   
844.000000	0.038000   
844.500000	-0.016000  
845.000000	0.016000   
845.500000	0.080000   
846.000000	0.007000   
846.500000	0.008999   
847.000000	-0.067000  
847.500000	-0.032000  
848.000000	-0.019000  
848.500000	-0.024000  
849.000000	-0.019000  
849.500000	-0.086999  
850.000000	-0.095000  
850.500000	-0.041000  
851.000000	-0.006000  
851.500000	-0.063000  
852.000000	-0.016000  
852.500000	0.000000   
853.000000	-0.051000  
853.500000	-0.010000  
854.000000	-0.036000  
854.500000	-0.007000  
855.000000	-0.042000  
855.500000	-0.039000  
856.000000	-0.019000  
856.500000	-0.012000  
857.000000	-0.096000  
857.500000	-0.025000  
858.000000	0.000000   
858.500000	-0.079000  
859.000000	0.063000   
859.500000	-0.031000  
860.000000	0.063000   
860.500000	-0.016000  
861.000000	-0.063000  
861.500000	0.029000   
862.000000	0.095000   
862.500000	0.086999   
863.000000	0.022000   
863.500000	-0.016000  
864.000000	-0.028000  
864.500000	-0.006000  
865.000000	0.000000   
865.500000	-0.063000  
866.000000	-0.096000  
866.500000	0.000000   
867.000000	0.095000   
867.500000	0.012000   
868.000000	-0.063000  
868.500000	0.007000   
869.000000	0.060000   
869.500000	0.024000   
870.000000	-0.013000  
870.500000	-0.034000  
871.000000	-0.015000  
871.500000	-0.118000  
872.000000	-0.091000  
872.500000	0.113000   
873.000000	0.000000   
873.500000	-0.095000  
874.000000	0.051000   
874.500000	-0.003000  
875.000000	0.025000   
875.500000	0.085000   
876.000000	-0.019000  
876.500000	-0.039000  
877.000000	-0.022000  
877.500000	-0.006000  
878.000000	0.048000   
878.500000	0.012000   
879.000000	0.000000   
879.500000	0.145000   
880.000000	-0.016000  
880.500000	0.000000   
881.000000	-0.057000  
881.500000	-0.032000  
882.000000	-0.020000  
882.500000	0.008999   
883.000000	0.000000   
883.500000	-0.008000  
884.000000	-0.035000  
884.500000	-0.037000  
885.000000	0.005000   
885.500000	-0.036000  
886.000000	-0.034000  
886.500000	-0.047000  
887.000000	0.047000   
887.500000	-0.015000  
888.000000	-0.013000  
888.500000	-0.067000  
889.000000	-0.055000  
889.500000	0.003000   
890.000000	-0.003000  
890.500000	-0.032000  
891.000000	-0.031000  
891.500000	0.029000   
892.000000	-0.169000  
892.500000	-0.099000  
893.000000	0.039000   
893.500000	-0.015000  
894.000000	-0.015000  
894.500000	-0.015000  
895.000000	-0.089000  
895.500000	-0.051000  
896.000000	-0.004000  
896.500000	0.016000   
897.000000	0.025000   
897.500000	-0.032000  
898.000000	-0.021000  
898.500000	0.013000   
899.000000	-0.101000  
899.500000	-0.080000  
900.000000	-0.031000  
900.500000	0.010000   

